N	t(c)	m(kg)	P(H)	V(m/s)	M	Cxa	alpha(grad)	theta_c(grad)	Cya_alpha	omega_z(1/s)	theta(grad)	y(m)	x(m)	g(m/s2)
1	0.000	1255.00	56000.0	10.000	0.0294	0.3000	0.00	85.00	0.2500	0.0000	85.00	0.00	0.00	9.8066
2	0.100	1253.00	56000.0	13.485	0.0396	0.3000	0.49	84.51	0.2500	0.0000	85.00	1.00	0.09	9.8066
3	0.200	1251.00	56000.0	16.977	0.0499	0.3000	0.73	84.27	0.2500	0.0000	85.00	2.34	0.22	9.8066
4	0.300	1249.00	56000.0	20.477	0.0602	0.3000	0.86	84.14	0.2500	0.0000	85.00	4.03	0.39	9.8066
5	0.400	1247.00	56000.0	23.983	0.0705	0.3000	0.96	84.04	0.2500	0.0000	85.00	6.06	0.59	9.8066
6	0.500	1245.00	56000.0	27.495	0.0808	0.3000	1.02	83.98	0.2500	0.0000	85.00	8.45	0.84	9.8066
7	0.600	1243.00	56000.0	31.015	0.0912	0.3000	1.07	83.93	0.2500	0.0000	85.00	11.18	1.13	9.8066
8	0.700	1241.00	56000.0	34.541	0.1015	0.3000	1.10	83.90	0.2500	0.0000	85.00	14.27	1.46	9.8066
9	0.800	1239.00	56000.0	38.073	0.1119	0.3000	1.13	83.87	0.2500	0.0000	85.00	17.70	1.83	9.8066
10	0.900	1237.00	56000.0	41.612	0.1223	0.3000	1.16	83.84	0.2500	0.0000	85.00	21.49	2.23	9.8066
11	1.000	1235.00	56000.0	45.158	0.1327	0.3000	1.17	83.83	0.2500	0.0000	85.00	25.63	2.68	9.8066
12	1.100	1233.00	56000.0	48.709	0.1432	0.3000	1.19	83.81	0.2500	0.0000	85.00	30.12	3.17	9.8066
13	1.200	1231.00	56000.0	52.267	0.1537	0.3000	1.20	83.80	0.2500	0.0000	85.00	34.96	3.69	9.8065
14	1.300	1229.00	56000.0	55.831	0.1641	0.3000	1.21	83.79	0.2500	0.0000	85.00	40.15	4.26	9.8065
15	1.400	1227.00	56000.0	59.400	0.1746	0.3000	1.22	83.78	0.2500	0.0000	85.00	45.70	4.86	9.8065
16	1.500	1225.00	56000.0	62.976	0.1852	0.3000	1.23	83.77	0.2500	0.0000	85.00	51.61	5.50	9.8065
17	1.600	1223.00	56000.0	66.558	0.1957	0.3000	1.24	83.76	0.2500	0.0000	85.00	57.87	6.19	9.8065
18	1.700	1221.00	56000.0	70.146	0.2063	0.3000	1.25	83.75	0.2500	0.0000	85.00	64.49	6.91	9.8065
19	1.800	1219.00	56000.0	73.739	0.2169	0.3000	1.25	83.75	0.2500	0.0000	85.00	71.46	7.67	9.8064
20	1.900	1217.00	56000.0	77.339	0.2275	0.3000	1.26	83.74	0.2500	0.0000	85.00	78.79	8.48	9.8064
21	2.000	1215.00	56000.0	80.944	0.2381	0.3000	1.26	83.74	0.2500	0.0000	85.00	86.48	9.32	9.8064
22	2.100	1213.00	56000.0	84.554	0.2487	0.3000	1.26	83.74	0.2500	0.0000	85.00	94.52	10.20	9.8064
23	2.200	1211.00	56000.0	88.170	0.2594	0.3000	1.27	83.73	0.2500	0.0000	85.00	102.93	11.13	9.8063
24	2.300	1209.00	56000.0	91.791	0.2701	0.3000	1.27	83.73	0.2500	0.0000	85.00	111.69	12.09	9.8063
25	2.400	1207.00	56000.0	95.418	0.2808	0.3000	1.27	83.73	0.2500	0.0000	85.00	120.82	13.09	9.8063
26	2.500	1205.00	56000.0	99.050	0.2915	0.3000	1.27	83.73	0.2500	0.0000	85.00	130.30	14.13	9.8062
27	2.600	1203.00	56000.0	102.687	0.3022	0.3000	1.28	83.72	0.2500	0.0000	85.00	140.15	15.22	9.8062
28	2.700	1201.00	56000.0	106.330	0.3130	0.3000	1.28	83.72	0.2500	0.0000	85.00	150.35	16.34	9.8062
29	2.800	1199.00	56000.0	109.977	0.3238	0.3000	1.28	83.72	0.2500	0.0000	85.00	160.92	17.50	9.8062
30	2.900	1197.00	56000.0	113.630	0.3346	0.3000	1.28	83.72	0.2500	0.0000	85.00	171.85	18.70	9.8061
31	3.000	1195.00	56000.0	117.287	0.3454	0.3000	1.28	83.72	0.2500	0.0000	85.00	183.15	19.95	9.8061
32	3.100	1193.00	56000.0	120.950	0.3562	0.3000	1.28	83.72	0.2500	0.0000	85.00	194.81	21.23	9.8060
33	3.200	1191.00	56000.0	124.617	0.3671	0.3000	1.28	83.72	0.2500	0.0000	85.00	206.83	22.55	9.8060
34	3.300	1189.00	56000.0	128.288	0.3779	0.3000	1.28	83.72	0.2500	0.0000	85.00	219.22	23.92	9.8060
35	3.400	1187.00	56000.0	131.965	0.3888	0.3000	1.28	83.72	0.2500	0.0000	85.00	231.97	25.32	9.8059
36	3.500	1185.00	56000.0	135.646	0.3997	0.3000	1.28	83.72	0.2500	0.0000	85.00	245.09	26.77	9.8059
37	3.600	1183.00	56000.0	139.331	0.4106	0.3000	1.28	83.72	0.2500	0.0000	85.00	258.57	28.25	9.8059
38	3.700	1181.00	56000.0	143.021	0.4216	0.3000	1.28	83.72	0.2500	0.0000	85.00	272.42	29.78	9.8058
39	3.800	1179.00	56000.0	146.715	0.4325	0.3000	1.28	83.72	0.2500	0.0000	85.00	286.63	31.34	9.8058
40	3.900	1177.00	56000.0	150.414	0.4435	0.3000	1.28	83.72	0.2500	0.0000	85.00	301.22	32.95	9.8057
41	4.000	1175.00	56000.0	154.117	0.4545	0.3000	1.28	83.72	0.2500	0.0000	85.00	316.17	34.59	9.8057
42	4.100	1173.00	56000.0	157.824	0.4655	0.3000	1.28	83.72	0.2500	0.0000	85.00	331.49	36.28	9.8056
43	4.200	1171.00	56000.0	161.534	0.4766	0.3000	1.28	83.72	0.2500	0.0000	85.00	347.18	38.01	9.8056
44	4.300	1169.00	56000.0	165.249	0.4876	0.3000	1.28	83.72	0.2500	0.0000	85.00	363.23	39.77	9.8055
45	4.400	1167.00	56000.0	168.968	0.4987	0.3000	1.28	83.72	0.2500	0.0000	85.00	379.66	41.58	9.8055
46	4.500	1165.00	56000.0	172.691	0.5098	0.3000	1.28	83.72	0.2500	0.0000	85.00	396.45	43.43	9.8054
47	4.600	1163.00	56000.0	176.417	0.5209	0.3000	1.28	83.72	0.2500	0.0000	85.00	413.62	45.32	9.8054
48	4.700	1161.00	56000.0	180.147	0.5320	0.3000	1.28	83.72	0.2500	0.0000	85.00	431.15	47.25	9.8053
49	4.800	1159.00	56000.0	183.881	0.5431	0.3000	1.28	83.72	0.2500	0.0000	85.00	449.06	49.22	9.8053
50	4.900	1157.00	56000.0	187.618	0.5543	0.3043	1.28	83.72	0.2500	0.0000	85.00	467.34	51.23	9.8052
51	5.000	1155.00	56000.0	191.358	0.5654	0.3154	1.28	83.72	0.2500	0.0000	85.00	485.99	53.28	9.8052
52	5.100	1153.00	56000.0	195.095	0.5766	0.3266	1.28	83.72	0.2500	0.0000	85.00	505.01	55.38	9.8051
53	5.200	1151.00	56000.0	198.831	0.5878	0.3378	1.27	83.73	0.2500	0.0000	85.00	524.40	57.51	9.8050
54	5.300	1149.00	56000.0	202.564	0.5990	0.3490	1.27	83.73	0.2500	0.0000	85.00	544.17	59.68	9.8050
55	5.400	1147.00	56000.0	206.295	0.6101	0.3601	1.27	83.73	0.2500	0.0000	85.00	564.30	61.89	9.8049
56	5.500	1145.00	56000.0	210.023	0.6213	0.3713	1.27	83.73	0.2500	0.0000	85.00	584.81	64.15	9.8048
57	5.600	1143.00	56000.0	213.746	0.6325	0.3825	1.27	83.73	0.2500	0.0000	85.00	605.68	66.44	9.8048
58	5.700	1141.00	56000.0	217.466	0.6436	0.3936	1.27	83.73	0.2500	0.0000	85.00	626.93	68.78	9.8047
59	5.800	1139.00	56000.0	221.181	0.6548	0.4048	1.27	83.73	0.2500	0.0000	85.00	648.55	71.15	9.8046
60	5.900	1137.00	56000.0	224.891	0.6659	0.4159	1.27	83.73	0.2500	0.0000	85.00	670.53	73.57	9.8046
61	6.000	1135.00	56000.0	228.595	0.6771	0.4271	1.27	83.73	0.2500	0.0000	85.00	692.89	76.02	9.8045
62	6.100	1133.00	56000.0	232.293	0.6882	0.4382	1.26	83.74	0.2500	0.0000	85.00	715.61	78.52	9.8044
63	6.200	1131.00	56000.0	235.984	0.6993	0.4493	1.26	83.74	0.2500	0.0000	85.00	738.70	81.05	9.8044
64	6.300	1129.00	56000.0	239.668	0.7104	0.4604	1.26	83.74	0.2500	0.0000	85.00	762.16	83.63	9.8043
65	6.400	1127.00	56000.0	243.345	0.7215	0.4715	1.26	83.74	0.2500	0.0000	85.00	785.98	86.24	9.8042
66	6.500	1125.00	56000.0	247.013	0.7326	0.4826	1.26	83.74	0.2500	0.0000	85.00	810.17	88.89	9.8042
67	6.600	1123.00	56000.0	250.673	0.7437	0.4937	1.26	83.74	0.2500	0.0000	85.00	834.73	91.59	9.8041
68	6.700	1121.00	56000.0	254.323	0.7547	0.5047	1.26	83.74	0.2500	0.0000	85.00	859.64	94.32	9.8040
69	6.800	1119.00	56000.0	257.964	0.7657	0.5157	1.25	83.75	0.2500	0.0000	85.00	884.92	97.09	9.8039
70	6.900	1117.00	56000.0	261.594	0.7767	0.5267	1.25	83.75	0.2500	0.0000	85.00	910.57	99.90	9.8038
71	7.000	1115.00	56000.0	265.214	0.7877	0.5377	1.25	83.75	0.2500	0.0000	85.00	936.57	102.75	9.8038
72	7.100	1113.00	56000.0	268.822	0.7987	0.5487	1.25	83.75	0.2500	0.0000	85.00	962.94	105.63	9.8037
73	7.200	1111.00	56000.0	272.419	0.8096	0.5644	1.25	83.75	0.2452	0.0000	85.00	989.66	108.56	9.8036
74	7.300	1109.00	56000.0	275.999	0.8205	0.5808	1.25	83.75	0.2397	0.0000	85.00	1016.74	111.53	9.8035
75	7.400	1107.00	56000.0	279.561	0.8314	0.5971	1.24	83.76	0.2343	0.0000	85.00	1044.17	114.53	9.8034
76	7.500	1105.00	56000.0	283.106	0.8422	0.6133	1.24	83.76	0.2289	0.0000	85.00	1071.96	117.57	9.8033
77	7.600	1103.00	56000.0	286.631	0.8530	0.6294	1.24	83.76	0.2235	0.0000	85.00	1100.11	120.65	9.8033
78	7.700	1101.00	56000.0	290.136	0.8637	0.6455	1.24	83.76	0.2182	0.0000	85.00	1128.60	123.76	9.8032
79	7.800	1099.00	56000.0	293.621	0.8743	0.6615	1.24	83.76	0.2128	0.0000	85.00	1157.44	126.92	9.8031
80	7.900	1097.00	56000.0	297.085	0.8849	0.6774	1.24	83.76	0.2075	0.0000	85.00	1186.63	130.11	9.8030
81	8.000	1095.00	56000.0	300.527	0.8955	0.6933	1.23	83.77	0.2022	0.0000	85.00	1216.16	133.34	9.8029
82	8.100	1093.00	56000.0	303.946	0.9060	0.7084	1.23	83.77	0.2060	0.0000	85.00	1246.04	136.60	9.8028
83	8.200	1091.00	56000.0	307.344	0.9165	0.7230	1.23	83.77	0.2165	0.0000	85.00	1276.25	139.90	9.8027
84	8.300	1089.00	56000.0	310.719	0.9269	0.7376	1.23	83.77	0.2269	0.0000	85.00	1306.81	143.24	9.8026
85	8.400	1087.00	56000.0	314.071	0.9372	0.7521	1.23	83.77	0.2372	0.0000	85.00	1337.69	146.61	9.8025
86	8.500	1085.00	56000.0	317.400	0.9475	0.7664	1.23	83.77	0.2475	0.0000	85.00	1368.92	150.01	9.8024
87	8.600	1083.00	56000.0	320.704	0.9577	0.7807	1.22	83.78	0.2577	0.0000	85.00	1400.47	153.46	9.8023
88	8.700	1081.00	56000.0	323.984	0.9678	0.7950	1.22	83.78	0.2678	0.0000	85.00	1432.35	156.93	9.8022
89	8.800	1079.00	56000.0	327.239	0.9779	0.8091	1.22	83.78	0.2779	0.0000	85.00	1464.56	160.45	9.8021
90	8.900	1077.00	56000.0	330.469	0.9879	0.8231	1.22	83.78	0.2879	0.0000	85.00	1497.09	163.99	9.8020
91	9.000	1075.00	56000.0	333.672	0.9979	0.8371	1.22	83.78	0.2979	0.0000	85.00	1529.94	167.57	9.8019
92	9.100	1073.00	56000.0	336.850	1.0078	0.8426	1.21	83.79	0.3013	0.0000	85.00	1563.11	171.18	9.8018
93	9.200	1071.00	56000.0	340.011	1.0177	0.8459	1.21	83.79	0.3029	0.0000	85.00	1596.60	174.83	9.8017
94	9.300	1069.00	56000.0	343.159	1.0275	0.8492	1.21	83.79	0.3046	0.0000	85.00	1630.40	178.51	9.8016
95	9.400	1067.00	56000.0	346.294	1.0373	0.8524	1.21	83.79	0.3062	0.0000	85.00	1664.51	182.22	9.8015
96	9.500	1065.00	56000.0	349.414	1.0471	0.8557	1.21	83.79	0.3078	0.0000	85.00	1698.94	185.97	9.8014
97	9.600	1063.00	56000.0	352.522	1.0568	0.8589	1.20	83.80	0.3095	0.0000	85.00	1733.68	189.74	9.8013
98	9.700	1061.00	56000.0	355.615	1.0665	0.8616	1.20	83.80	0.3002	0.0000	85.00	1768.72	193.55	9.8012
99	9.800	1059.00	56000.0	358.696	1.0762	0.8640	1.20	83.80	0.2857	0.0000	85.00	1804.08	197.40	9.8011
100	9.900	1057.00	56000.0	361.764	1.0859	0.8665	1.20	83.80	0.2712	0.0000	85.00	1839.74	201.27	9.8010
101	10.000	1055.00	56000.0	364.819	1.0955	0.8689	1.19	83.81	0.2568	0.0000	85.00	1875.70	205.17	9.8009
102	10.100	1053.00	56000.0	367.861	1.1051	0.8680	1.19	83.81	0.2500	0.0000	85.00	1911.97	209.11	9.8008
103	10.200	1051.00	56000.0	370.895	1.1147	0.8641	1.19	83.81	0.2500	0.0000	85.00	1948.54	213.08	9.8006
104	10.300	1049.00	56000.0	373.927	1.1243	0.8603	1.19	83.81	0.2500	0.0000	85.00	1985.42	217.08	9.8005
105	10.400	1047.00	56000.0	376.954	1.1339	0.8564	1.19	83.81	0.2500	0.0000	85.00	2022.59	221.11	9.8004
106	10.500	1045.00	56000.0	379.979	1.1435	0.8526	1.18	83.82	0.2500	0.0000	85.00	2060.07	225.17	9.8003
107	10.600	1043.00	56000.0	383.001	1.1531	0.8488	1.18	83.82	0.2500	0.0000	85.00	2097.84	229.27	9.8002
108	10.700	1041.00	56000.0	386.021	1.1627	0.8449	1.18	83.82	0.2500	0.0000	85.00	2135.92	233.39	9.8001
109	10.800	1039.00	56000.0	389.038	1.1723	0.8411	1.18	83.82	0.2500	0.0000	85.00	2174.30	237.55	9.7999
110	10.900	1037.00	56000.0	392.053	1.1820	0.8372	1.18	83.82	0.2500	0.0000	85.00	2212.98	241.73	9.7998
111	11.000	1035.00	56000.0	395.065	1.1916	0.8334	1.17	83.83	0.2500	0.0000	85.00	2251.95	245.95	9.7997
112	11.100	1033.00	56000.0	398.076	1.2012	0.8296	1.17	83.83	0.2500	0.0000	85.00	2291.23	250.20	9.7996
113	11.200	1031.00	56000.0	401.085	1.2109	0.8267	1.17	83.83	0.2500	0.0000	85.00	2330.81	254.48	9.7995
114	11.300	1029.00	56000.0	404.091	1.2205	0.8238	1.17	83.83	0.2500	0.0000	85.00	2370.68	258.79	9.7993
115	11.400	1027.00	56000.0	407.094	1.2302	0.8209	1.17	83.83	0.2500	0.0000	85.00	2410.86	263.13	9.7992
116	11.500	1025.00	56000.0	410.094	1.2399	0.8180	1.16	83.84	0.2500	0.0000	85.00	2451.33	267.51	9.7991
117	11.600	1023.00	56000.0	413.091	1.2495	0.8151	1.16	83.84	0.2500	0.0000	85.00	2492.10	271.91	9.7990
118	11.700	1021.00	56000.0	416.085	1.2592	0.8122	1.16	83.84	0.2500	0.0000	85.00	2533.18	276.34	9.7988
119	11.800	1019.00	56000.0	419.078	1.2689	0.8093	1.16	83.84	0.2500	0.0000	85.00	2574.54	280.81	9.7987
120	11.900	1017.00	56000.0	422.068	1.2786	0.8064	1.16	83.84	0.2500	0.0000	85.00	2616.21	285.30	9.7986
121	12.000	1015.00	56000.0	425.056	1.2883	0.8035	1.15	83.85	0.2500	0.0000	85.00	2658.17	289.83	9.7985
122	12.100	1013.00	56000.0	428.042	1.2980	0.8006	1.15	83.85	0.2500	0.0000	85.00	2700.43	294.39	9.7983
123	12.200	1011.00	56000.0	431.027	1.3077	0.7992	1.15	83.85	0.2500	0.0000	85.00	2742.99	298.97	9.7982
124	12.300	1009.00	56000.0	434.007	1.3174	0.7983	1.15	83.85	0.2500	0.0000	85.00	2785.85	303.59	9.7981
125	12.400	1007.00	56000.0	436.982	1.3272	0.7973	1.15	83.85	0.2500	0.0000	85.00	2829.00	308.24	9.7979
126	12.500	1005.00	56000.0	439.952	1.3369	0.7963	1.14	83.86	0.2500	0.0000	85.00	2872.44	312.92	9.7978
127	12.600	1003.00	56000.0	442.917	1.3466	0.7953	1.14	83.86	0.2500	0.0000	85.00	2916.19	317.62	9.7977
128	12.700	1001.00	56000.0	445.877	1.3563	0.7944	1.14	83.86	0.2500	0.0000	85.00	2960.22	322.36	9.7975
129	12.800	999.00	56000.0	448.833	1.3660	0.7934	1.14	83.86	0.2500	0.0000	85.00	3004.56	327.13	9.7974
130	12.900	997.00	56000.0	451.784	1.3758	0.7924	1.13	83.87	0.2500	0.0000	85.00	3049.18	331.93	9.7972
131	13.000	995.00	56000.0	454.730	1.3855	0.7915	1.13	83.87	0.2500	0.0000	85.00	3094.10	336.76	9.7971
132	13.100	993.00	56000.0	457.673	1.3952	0.7905	1.13	83.87	0.2500	0.0000	85.00	3139.32	341.61	9.7970
133	13.200	991.00	56000.0	460.611	1.4049	0.7888	1.13	83.87	0.2500	0.0000	85.00	3184.82	346.50	9.7968
134	13.300	989.00	56000.0	463.546	1.4147	0.7866	1.13	83.87	0.2500	0.0000	85.00	3230.62	351.42	9.7967
135	13.400	987.00	56000.0	466.481	1.4244	0.7843	1.12	83.88	0.2500	0.0000	85.00	3276.71	356.36	9.7965
136	13.500	985.00	56000.0	469.415	1.4342	0.7820	1.12	83.88	0.2500	0.0000	85.00	3323.09	361.34	9.7964
137	13.600	983.00	56000.0	472.348	1.4440	0.7797	1.12	83.88	0.2500	0.0000	85.00	3369.76	366.34	9.7963
138	13.700	981.00	56000.0	475.281	1.4538	0.7774	1.12	83.88	0.2500	0.0000	85.00	3416.73	371.38	9.7961
139	13.800	979.00	56000.0	478.213	1.4636	0.7752	1.11	83.89	0.2500	0.0000	85.00	3463.99	376.44	9.7960
140	13.900	977.00	56000.0	481.146	1.4734	0.7729	1.11	83.89	0.2500	0.0000	85.00	3511.54	381.54	9.7958
141	14.000	975.00	56000.0	484.079	1.4833	0.7706	1.11	83.89	0.2500	0.0000	85.00	3559.38	386.66	9.7957
142	14.100	973.00	56000.0	487.012	1.4932	0.7683	1.11	83.89	0.2500	0.0000	85.00	3607.51	391.81	9.7955
143	14.200	971.00	56000.0	489.945	1.5030	0.7660	1.11	83.89	0.2500	0.0000	85.00	3655.94	397.00	9.7954
144	14.300	969.00	56000.0	492.880	1.5130	0.7636	1.10	83.90	0.2500	0.0000	85.00	3704.65	402.21	9.7952
145	14.400	967.00	56000.0	495.815	1.5229	0.7613	1.10	83.90	0.2500	0.0000	85.00	3753.66	407.45	9.7951
146	14.500	965.00	56000.0	498.751	1.5328	0.7590	1.10	83.90	0.2500	0.0000	85.00	3802.96	412.72	9.7949
147	14.600	963.00	56000.0	501.689	1.5428	0.7567	1.10	83.90	0.2500	0.0000	85.00	3852.55	418.02	9.7948
148	14.700	961.00	56000.0	504.628	1.5528	0.7543	1.09	83.91	0.2500	0.0000	85.00	3902.44	423.35	9.7946
149	14.800	959.00	56000.0	507.569	1.5628	0.7520	1.09	83.91	0.2500	0.0000	85.00	3952.62	428.70	9.7945
150	14.900	957.00	56000.0	510.513	1.5729	0.7497	1.09	83.91	0.2500	0.0000	85.00	4003.09	434.09	9.7943
151	15.000	955.00	56000.0	513.458	1.5829	0.7473	1.09	83.91	0.2500	0.0000	85.00	4053.85	439.51	9.7942
152	15.100	953.00	56000.0	516.405	1.5930	0.7450	1.09	83.91	0.2500	0.0000	85.00	4104.91	444.95	9.7940
153	15.200	951.00	56000.0	519.356	1.6031	0.7426	1.08	83.92	0.2500	0.0000	85.00	4156.26	450.43	9.7938
154	15.300	949.00	56000.0	522.309	1.6133	0.7402	1.08	83.92	0.2500	0.0000	85.00	4207.90	455.93	9.7937
155	15.400	947.00	56000.0	525.265	1.6235	0.7379	1.08	83.92	0.2500	0.0000	85.00	4259.84	461.47	9.7935
156	15.500	945.00	56000.0	528.224	1.6337	0.7355	1.08	83.92	0.2500	0.0000	85.00	4312.07	467.03	9.7934
157	15.600	943.00	56000.0	531.187	1.6439	0.7331	1.07	83.93	0.2500	0.0000	85.00	4364.59	472.62	9.7932
158	15.700	941.00	56000.0	534.153	1.6542	0.7307	1.07	83.93	0.2500	0.0000	85.00	4417.41	478.24	9.7930
159	15.800	939.00	56000.0	537.123	1.6645	0.7283	1.07	83.93	0.2500	0.0000	85.00	4470.53	483.89	9.7929
160	15.900	937.00	56000.0	540.098	1.6748	0.7259	1.07	83.93	0.2500	0.0000	85.00	4523.94	489.57	9.7927
161	16.000	935.00	56000.0	543.077	1.6852	0.7234	1.07	83.93	0.2500	0.0000	85.00	4577.65	495.28	9.7925
162	16.100	933.00	56000.0	546.060	1.6956	0.7210	1.06	83.94	0.2500	0.0000	85.00	4631.65	501.02	9.7924
163	16.200	931.00	56000.0	549.048	1.7061	0.7186	1.06	83.94	0.2500	0.0000	85.00	4685.95	506.79	9.7922
164	16.300	929.00	56000.0	552.041	1.7166	0.7161	1.06	83.94	0.2500	0.0000	85.00	4740.55	512.59	9.7920
165	16.400	927.00	56000.0	555.040	1.7271	0.7137	1.06	83.94	0.2500	0.0000	85.00	4795.44	518.41	9.7919
166	16.500	925.00	56000.0	558.044	1.7376	0.7112	1.05	83.95	0.2500	0.0000	85.00	4850.64	524.27	9.7917
167	16.600	923.00	56000.0	561.053	1.7482	0.7087	1.05	83.95	0.2500	0.0000	85.00	4906.13	530.16	9.7915
168	16.700	921.00	56000.0	564.069	1.7589	0.7063	1.05	83.95	0.2500	0.0000	85.00	4961.92	536.07	9.7914
169	16.800	919.00	56000.0	567.091	1.7695	0.7038	1.05	83.95	0.2500	0.0000	85.00	5018.02	542.02	9.7912
170	16.900	917.00	56000.0	570.119	1.7803	0.7013	1.05	83.95	0.2500	0.0000	85.00	5074.41	547.99	9.7910
171	17.000	915.00	56000.0	573.154	1.7910	0.6988	1.04	83.96	0.2500	0.0000	85.00	5131.10	554.00	9.7908
172	17.100	913.00	56000.0	576.195	1.8019	0.6962	1.04	83.96	0.2500	0.0000	85.00	5188.10	560.03	9.7907
173	17.200	911.00	56000.0	579.244	1.8127	0.6937	1.04	83.96	0.2500	0.0000	85.00	5245.40	566.10	9.7905
174	17.300	909.00	56000.0	582.301	1.8236	0.6912	1.04	83.96	0.2500	0.0000	85.00	5303.00	572.19	9.7903
175	17.400	907.00	56000.0	585.365	1.8346	0.6886	1.04	83.96	0.2500	0.0000	85.00	5360.91	578.32	9.7901
176	17.500	905.00	56000.0	588.437	1.8456	0.6860	1.03	83.97	0.2500	0.0000	85.00	5419.12	584.47	9.7900
177	17.600	903.00	56000.0	591.517	1.8566	0.6835	1.03	83.97	0.2500	0.0000	85.00	5477.64	590.66	9.7898
178	17.700	901.00	56000.0	594.605	1.8677	0.6809	1.03	83.97	0.2500	0.0000	85.00	5536.47	596.87	9.7896
179	17.800	899.00	56000.0	597.702	1.8789	0.6783	1.03	83.97	0.2500	0.0000	85.00	5595.60	603.12	9.7894
180	17.900	897.00	56000.0	600.808	1.8901	0.6756	1.02	83.98	0.2500	0.0000	85.00	5655.04	609.39	9.7892
181	18.000	895.00	56000.0	603.923	1.9014	0.6730	1.02	83.98	0.2500	0.0000	85.00	5714.79	615.70	9.7890
182	18.100	893.00	56000.0	607.048	1.9127	0.6704	1.02	83.98	0.2500	0.0000	85.00	5774.85	622.03	9.7889
183	18.200	891.00	56000.0	610.182	1.9241	0.6677	1.02	83.98	0.2500	0.0000	85.00	5835.22	628.40	9.7887
184	18.300	889.00	56000.0	613.326	1.9355	0.6650	1.02	83.98	0.2500	0.0000	85.00	5895.90	634.79	9.7885
185	18.400	887.00	56000.0	616.481	1.9470	0.6624	1.01	83.99	0.2500	0.0000	85.00	5956.89	641.22	9.7883
186	18.500	885.00	56000.0	619.645	1.9586	0.6597	1.01	83.99	0.2500	0.0000	85.00	6018.20	647.68	9.7881
187	18.600	883.00	56000.0	622.821	1.9702	0.6570	1.01	83.99	0.2500	0.0000	85.00	6079.82	654.17	9.7879
188	18.700	881.00	56000.0	626.008	1.9819	0.6542	1.01	83.99	0.2500	0.0000	85.00	6141.76	660.69	9.7877
189	18.800	879.00	56000.0	629.206	1.9936	0.6515	1.00	84.00	0.2500	0.0000	85.00	6204.02	667.24	9.7875
190	18.900	877.00	56000.0	632.415	2.0054	0.6491	1.00	84.00	0.2500	0.0000	85.00	6266.60	673.82	9.7873
191	19.000	875.00	56000.0	635.635	2.0173	0.6471	1.00	84.00	0.2500	0.0000	85.00	6329.49	680.43	9.7871
192	19.100	873.00	56000.0	638.865	2.0292	0.6451	1.00	84.00	0.2500	0.0000	85.00	6392.71	687.08	9.7870
193	19.200	871.00	56000.0	642.104	2.0412	0.6431	1.00	84.00	0.2500	0.0000	85.00	6456.24	693.75	9.7868
194	19.300	869.00	56000.0	645.353	2.0533	0.6411	0.99	84.01	0.2500	0.0000	85.00	6520.10	700.46	9.7866
195	19.400	867.00	56000.0	648.612	2.0654	0.6391	0.99	84.01	0.2500	0.0000	85.00	6584.29	707.20	9.7864
196	19.500	865.00	56000.0	651.882	2.0776	0.6371	0.99	84.01	0.2500	0.0000	85.00	6648.79	713.97	9.7862
197	19.600	863.00	56000.0	655.162	2.0898	0.6350	0.99	84.01	0.2500	0.0000	85.00	6713.63	720.77	9.7860
198	19.700	861.00	56000.0	658.454	2.1022	0.6330	0.98	84.02	0.2500	0.0000	85.00	6778.78	727.60	9.7858
199	19.800	859.00	56000.0	661.756	2.1145	0.6309	0.98	84.02	0.2500	0.0000	85.00	6844.27	734.47	9.7856
