t(c)	x(m)	y(m)	V(m/s)	theta_c(grad)	theta(grad)	alpha(grad)	omega_z(1/s)	M	Cxa	Cya_alpha	m(kg)	P(H)	g(m/s2)
0.000	0.00	0.00	10.000	85.000	85.000	0.000	0.0000	0.0294	0.3000	0.2500	1255.00	56000.0	9.8066
0.100	0.11	1.17	13.489	84.637	85.000	0.363	0.0000	0.0396	0.3000	0.2500	1253.00	56000.0	9.8066
0.200	0.25	2.69	16.984	84.423	85.000	0.577	0.0000	0.0499	0.3000	0.2500	1251.00	56000.0	9.8066
0.300	0.44	4.55	20.487	84.283	85.000	0.717	0.0000	0.0602	0.3000	0.2500	1249.00	56000.0	9.8066
0.400	0.66	6.76	23.996	84.184	85.000	0.816	0.0000	0.0705	0.3000	0.2500	1247.00	56000.0	9.8066
0.500	0.93	9.32	27.512	84.110	85.000	0.890	0.0000	0.0809	0.3000	0.2500	1245.00	56000.0	9.8066
0.600	1.23	12.24	31.035	84.054	85.000	0.946	0.0000	0.0912	0.3000	0.2500	1243.00	56000.0	9.8066
0.700	1.57	15.50	34.564	84.009	85.000	0.991	0.0000	0.1016	0.3000	0.2500	1241.00	56000.0	9.8066
0.800	1.95	19.11	38.100	83.972	85.000	1.028	0.0000	0.1120	0.3000	0.2500	1239.00	56000.0	9.8066
0.900	2.37	23.08	41.642	83.942	85.000	1.058	0.0000	0.1224	0.3000	0.2500	1237.00	56000.0	9.8066
1.000	2.83	27.39	45.190	83.917	85.000	1.083	0.0000	0.1328	0.3000	0.2500	1235.00	56000.0	9.8066
1.100	3.33	32.06	48.745	83.896	85.000	1.104	0.0000	0.1433	0.3000	0.2500	1233.00	56000.0	9.8066
1.200	3.87	37.09	52.306	83.878	85.000	1.122	0.0000	0.1538	0.3000	0.2500	1231.00	56000.0	9.8065
1.300	4.44	42.46	55.872	83.862	85.000	1.138	0.0000	0.1643	0.3000	0.2500	1229.00	56000.0	9.8065
1.400	5.06	48.20	59.445	83.849	85.000	1.151	0.0000	0.1748	0.3000	0.2500	1227.00	56000.0	9.8065
1.500	5.72	54.28	63.024	83.837	85.000	1.163	0.0000	0.1853	0.3000	0.2500	1225.00	56000.0	9.8065
1.600	6.41	60.73	66.609	83.826	85.000	1.174	0.0000	0.1959	0.3000	0.2500	1223.00	56000.0	9.8065
1.700	7.15	67.53	70.199	83.817	85.000	1.183	0.0000	0.2064	0.3000	0.2500	1221.00	56000.0	9.8064
1.800	7.93	74.69	73.796	83.809	85.000	1.191	0.0000	0.2170	0.3000	0.2500	1219.00	56000.0	9.8064
1.900	8.74	82.20	77.398	83.802	85.000	1.198	0.0000	0.2277	0.3000	0.2500	1217.00	56000.0	9.8064
2.000	9.60	90.08	81.005	83.795	85.000	1.205	0.0000	0.2383	0.3000	0.2500	1215.00	56000.0	9.8064
2.100	10.49	98.31	84.619	83.789	85.000	1.211	0.0000	0.2489	0.3000	0.2500	1213.00	56000.0	9.8063
2.200	11.43	106.90	88.237	83.784	85.000	1.216	0.0000	0.2596	0.3000	0.2500	1211.00	56000.0	9.8063
2.300	12.40	115.85	91.861	83.780	85.000	1.220	0.0000	0.2703	0.3000	0.2500	1209.00	56000.0	9.8063
2.400	13.42	125.16	95.491	83.775	85.000	1.225	0.0000	0.2810	0.3000	0.2500	1207.00	56000.0	9.8063
2.500	14.47	134.84	99.125	83.772	85.000	1.228	0.0000	0.2917	0.3000	0.2500	1205.00	56000.0	9.8062
2.600	15.57	144.87	102.765	83.768	85.000	1.232	0.0000	0.3025	0.3000	0.2500	1203.00	56000.0	9.8062
2.700	16.71	155.27	106.410	83.765	85.000	1.235	0.0000	0.3132	0.3000	0.2500	1201.00	56000.0	9.8062
2.800	17.88	166.03	110.060	83.763	85.000	1.237	0.0000	0.3240	0.3000	0.2500	1199.00	56000.0	9.8061
2.900	19.10	177.15	113.715	83.760	85.000	1.240	0.0000	0.3348	0.3000	0.2500	1197.00	56000.0	9.8061
3.000	20.35	188.64	117.375	83.758	85.000	1.242	0.0000	0.3457	0.3000	0.2500	1195.00	56000.0	9.8061
3.100	21.65	200.49	121.039	83.756	85.000	1.244	0.0000	0.3565	0.3000	0.2500	1193.00	56000.0	9.8060
3.200	22.99	212.70	124.709	83.754	85.000	1.246	0.0000	0.3674	0.3000	0.2500	1191.00	56000.0	9.8060
3.300	24.36	225.28	128.383	83.753	85.000	1.247	0.0000	0.3782	0.3000	0.2500	1189.00	56000.0	9.8060
3.400	25.78	238.23	132.061	83.751	85.000	1.249	0.0000	0.3891	0.3000	0.2500	1187.00	56000.0	9.8059
3.500	27.24	251.54	135.745	83.750	85.000	1.250	0.0000	0.4000	0.3000	0.2500	1185.00	56000.0	9.8059
3.600	28.74	265.21	139.432	83.749	85.000	1.251	0.0000	0.4110	0.3000	0.2500	1183.00	56000.0	9.8058
3.700	30.27	279.26	143.124	83.749	85.000	1.251	0.0000	0.4219	0.3000	0.2500	1181.00	56000.0	9.8058
3.800	31.85	293.67	146.821	83.748	85.000	1.252	0.0000	0.4329	0.3000	0.2500	1179.00	56000.0	9.8057
3.900	33.47	308.45	150.521	83.747	85.000	1.253	0.0000	0.4439	0.3000	0.2500	1177.00	56000.0	9.8057
4.000	35.13	323.59	154.226	83.747	85.000	1.253	0.0000	0.4549	0.3000	0.2500	1175.00	56000.0	9.8057
4.100	36.83	339.11	157.935	83.746	85.000	1.254	0.0000	0.4659	0.3000	0.2500	1173.00	56000.0	9.8056
4.200	38.57	354.99	161.648	83.746	85.000	1.254	0.0000	0.4769	0.3000	0.2500	1171.00	56000.0	9.8056
4.300	40.35	371.25	165.364	83.746	85.000	1.254	0.0000	0.4880	0.3000	0.2500	1169.00	56000.0	9.8055
4.400	42.18	387.87	169.085	83.746	85.000	1.254	0.0000	0.4991	0.3000	0.2500	1167.00	56000.0	9.8055
4.500	44.04	404.86	172.810	83.746	85.000	1.254	0.0000	0.5102	0.3000	0.2500	1165.00	56000.0	9.8054
4.600	45.94	422.22	176.538	83.746	85.000	1.254	0.0000	0.5213	0.3000	0.2500	1163.00	56000.0	9.8053
4.700	47.88	439.96	180.270	83.746	85.000	1.254	0.0000	0.5324	0.3000	0.2500	1161.00	56000.0	9.8053
4.800	49.87	458.06	184.005	83.747	85.000	1.253	0.0000	0.5435	0.3000	0.2500	1159.00	56000.0	9.8052
4.900	51.89	476.54	187.743	83.747	85.000	1.253	0.0000	0.5547	0.3047	0.2500	1157.00	56000.0	9.8052
5.000	53.96	495.39	191.481	83.748	85.000	1.252	0.0000	0.5659	0.3159	0.2500	1155.00	56000.0	9.8051
5.100	56.06	514.61	195.218	83.748	85.000	1.252	0.0000	0.5770	0.3270	0.2500	1153.00	56000.0	9.8051
5.200	58.21	534.20	198.952	83.749	85.000	1.251	0.0000	0.5882	0.3382	0.2500	1151.00	56000.0	9.8050
5.300	60.40	554.16	202.684	83.749	85.000	1.251	0.0000	0.5994	0.3494	0.2500	1149.00	56000.0	9.8049
5.400	62.62	574.50	206.413	83.750	85.000	1.250	0.0000	0.6105	0.3605	0.2500	1147.00	56000.0	9.8049
5.500	64.89	595.20	210.138	83.751	85.000	1.249	0.0000	0.6217	0.3717	0.2500	1145.00	56000.0	9.8048
5.600	67.20	616.27	213.860	83.751	85.000	1.249	0.0000	0.6329	0.3829	0.2500	1143.00	56000.0	9.8047
5.700	69.55	637.72	217.577	83.752	85.000	1.248	0.0000	0.6440	0.3940	0.2500	1141.00	56000.0	9.8047
5.800	71.93	659.53	221.289	83.753	85.000	1.247	0.0000	0.6552	0.4052	0.2500	1139.00	56000.0	9.8046
5.900	74.36	681.71	224.996	83.754	85.000	1.246	0.0000	0.6663	0.4163	0.2500	1137.00	56000.0	9.8045
6.000	76.83	704.26	228.696	83.755	85.000	1.245	0.0000	0.6775	0.4275	0.2500	1135.00	56000.0	9.8045
6.100	79.34	727.18	232.391	83.756	85.000	1.244	0.0000	0.6886	0.4386	0.2500	1133.00	56000.0	9.8044
6.200	81.88	750.47	236.078	83.757	85.000	1.243	0.0000	0.6997	0.4497	0.2500	1131.00	56000.0	9.8043
6.300	84.47	774.12	239.759	83.758	85.000	1.242	0.0000	0.7108	0.4608	0.2500	1129.00	56000.0	9.8043
6.400	87.10	798.13	243.431	83.759	85.000	1.241	0.0000	0.7219	0.4719	0.2500	1127.00	56000.0	9.8042
6.500	89.76	822.51	247.095	83.760	85.000	1.240	0.0000	0.7330	0.4830	0.2500	1125.00	56000.0	9.8041
6.600	92.47	847.26	250.750	83.761	85.000	1.239	0.0000	0.7440	0.4940	0.2500	1123.00	56000.0	9.8040
6.700	95.21	872.37	254.395	83.763	85.000	1.237	0.0000	0.7550	0.5050	0.2500	1121.00	56000.0	9.8040
6.800	98.00	897.84	258.031	83.764	85.000	1.236	0.0000	0.7661	0.5161	0.2500	1119.00	56000.0	9.8039
6.900	100.82	923.67	261.656	83.765	85.000	1.235	0.0000	0.7770	0.5270	0.2500	1117.00	56000.0	9.8038
7.000	103.68	949.86	265.270	83.766	85.000	1.234	0.0000	0.7880	0.5380	0.2500	1115.00	56000.0	9.8037
7.100	106.58	976.41	268.873	83.768	85.000	1.232	0.0000	0.7990	0.5490	0.2500	1113.00	56000.0	9.8036
7.200	109.52	1003.31	272.461	83.769	85.000	1.231	0.0000	0.8099	0.5648	0.2451	1111.00	56000.0	9.8036
7.300	112.50	1030.58	276.033	83.770	85.000	1.230	0.0000	0.8208	0.5811	0.2396	1109.00	56000.0	9.8035
7.400	115.51	1058.20	279.586	83.772	85.000	1.228	0.0000	0.8316	0.5974	0.2342	1107.00	56000.0	9.8034
7.500	118.56	1086.17	283.121	83.773	85.000	1.227	0.0000	0.8424	0.6136	0.2288	1105.00	56000.0	9.8033
7.600	121.65	1114.49	286.637	83.774	85.000	1.226	0.0000	0.8531	0.6297	0.2234	1103.00	56000.0	9.8032
7.700	124.78	1143.15	290.133	83.776	85.000	1.224	0.0000	0.8638	0.6457	0.2181	1101.00	56000.0	9.8031
7.800	127.94	1172.17	293.608	83.777	85.000	1.223	0.0000	0.8744	0.6617	0.2128	1099.00	56000.0	9.8030
7.900	131.14	1201.53	297.062	83.779	85.000	1.221	0.0000	0.8850	0.6775	0.2075	1097.00	56000.0	9.8029
8.000	134.38	1231.23	300.494	83.780	85.000	1.220	0.0000	0.8956	0.6933	0.2022	1095.00	56000.0	9.8029
8.100	137.66	1261.28	303.903	83.781	85.000	1.219	0.0000	0.9060	0.7085	0.2060	1093.00	56000.0	9.8028
8.200	140.97	1291.66	307.291	83.783	85.000	1.217	0.0000	0.9165	0.7230	0.2165	1091.00	56000.0	9.8027
8.300	144.31	1322.37	310.656	83.784	85.000	1.216	0.0000	0.9268	0.7376	0.2268	1089.00	56000.0	9.8026
8.400	147.69	1353.42	313.998	83.786	85.000	1.214	0.0000	0.9371	0.7520	0.2371	1087.00	56000.0	9.8025
8.500	151.11	1384.80	317.316	83.787	85.000	1.213	0.0000	0.9474	0.7663	0.2474	1085.00	56000.0	9.8024
8.600	154.56	1416.51	320.611	83.789	85.000	1.211	0.0000	0.9576	0.7806	0.2576	1083.00	56000.0	9.8023
8.700	158.05	1448.55	323.880	83.791	85.000	1.209	0.0000	0.9677	0.7948	0.2677	1081.00	56000.0	9.8022
8.800	161.57	1480.91	327.125	83.793	85.000	1.207	0.0000	0.9778	0.8089	0.2778	1079.00	56000.0	9.8021
8.900	165.12	1513.59	330.344	83.794	85.000	1.206	0.0000	0.9878	0.8229	0.2878	1077.00	56000.0	9.8020
9.000	168.71	1546.59	333.537	83.796	85.000	1.204	0.0000	0.9977	0.8368	0.2977	1075.00	56000.0	9.8019
9.100	172.33	1579.91	336.710	83.798	85.000	1.202	0.0000	1.0076	0.8425	0.3013	1073.00	56000.0	9.8018
9.200	175.98	1613.54	339.867	83.800	85.000	1.200	0.0000	1.0174	0.8458	0.3029	1071.00	56000.0	9.8017
9.300	179.67	1647.48	343.011	83.802	85.000	1.198	0.0000	1.0272	0.8491	0.3045	1069.00	56000.0	9.8016
9.400	183.39	1681.74	346.142	83.804	85.000	1.196	0.0000	1.0370	0.8523	0.3062	1067.00	56000.0	9.8015
9.500	187.14	1716.31	349.259	83.806	85.000	1.194	0.0000	1.0468	0.8556	0.3078	1065.00	56000.0	9.8014
9.600	190.93	1751.18	352.363	83.809	85.000	1.191	0.0000	1.0565	0.8588	0.3094	1063.00	56000.0	9.8012
9.700	194.74	1786.37	355.453	83.811	85.000	1.189	0.0000	1.0662	0.8616	0.3006	1061.00	56000.0	9.8011
9.800	198.59	1821.86	358.531	83.813	85.000	1.187	0.0000	1.0759	0.8640	0.2861	1059.00	56000.0	9.8010
9.900	202.47	1857.66	361.596	83.815	85.000	1.185	0.0000	1.0856	0.8664	0.2716	1057.00	56000.0	9.8009
10.000	206.38	1893.76	364.648	83.816	85.000	1.184	0.0000	1.0952	0.8688	0.2572	1055.00	56000.0	9.8008
10.100	210.33	1930.16	367.690	83.818	85.000	1.182	0.0000	1.1048	0.8681	0.2500	1053.00	56000.0	9.8007
10.200	214.30	1966.87	370.726	83.820	85.000	1.180	0.0000	1.1144	0.8642	0.2500	1051.00	56000.0	9.8006
10.300	218.31	2003.88	373.759	83.822	85.000	1.178	0.0000	1.1240	0.8604	0.2500	1049.00	56000.0	9.8005
10.400	222.35	2041.19	376.789	83.824	85.000	1.176	0.0000	1.1336	0.8565	0.2500	1047.00	56000.0	9.8004
10.500	226.41	2078.80	379.816	83.826	85.000	1.174	0.0000	1.1433	0.8527	0.2500	1045.00	56000.0	9.8002
10.600	230.51	2116.71	382.840	83.828	85.000	1.172	0.0000	1.1529	0.8488	0.2500	1043.00	56000.0	9.8001
10.700	234.65	2154.92	385.862	83.830	85.000	1.170	0.0000	1.1625	0.8450	0.2500	1041.00	56000.0	9.8000
10.800	238.81	2193.43	388.882	83.832	85.000	1.168	0.0000	1.1721	0.8411	0.2500	1039.00	56000.0	9.7999
10.900	243.00	2232.25	391.899	83.834	85.000	1.166	0.0000	1.1818	0.8373	0.2500	1037.00	56000.0	9.7998
11.000	247.23	2271.36	394.915	83.835	85.000	1.165	0.0000	1.1914	0.8334	0.2500	1035.00	56000.0	9.7996
11.100	251.49	2310.77	397.928	83.837	85.000	1.163	0.0000	1.2011	0.8297	0.2500	1033.00	56000.0	9.7995
11.200	255.77	2350.49	400.940	83.839	85.000	1.161	0.0000	1.2107	0.8268	0.2500	1031.00	56000.0	9.7994
11.300	260.09	2390.50	403.948	83.841	85.000	1.159	0.0000	1.2204	0.8239	0.2500	1029.00	56000.0	9.7993
11.400	264.44	2430.81	406.953	83.843	85.000	1.157	0.0000	1.2301	0.8210	0.2500	1027.00	56000.0	9.7992
11.500	268.82	2471.42	409.955	83.845	85.000	1.155	0.0000	1.2397	0.8181	0.2500	1025.00	56000.0	9.7990
11.600	273.23	2512.33	412.955	83.847	85.000	1.153	0.0000	1.2494	0.8152	0.2500	1023.00	56000.0	9.7989
11.700	277.67	2553.53	415.953	83.849	85.000	1.151	0.0000	1.2591	0.8123	0.2500	1021.00	56000.0	9.7988
11.800	282.14	2595.04	418.948	83.851	85.000	1.149	0.0000	1.2688	0.8094	0.2500	1019.00	56000.0	9.7986
11.900	286.65	2636.84	421.941	83.853	85.000	1.147	0.0000	1.2785	0.8064	0.2500	1017.00	56000.0	9.7985
12.000	291.18	2678.94	424.933	83.855	85.000	1.145	0.0000	1.2882	0.8035	0.2500	1015.00	56000.0	9.7984
12.100	295.74	2721.34	427.922	83.857	85.000	1.143	0.0000	1.2980	0.8006	0.2500	1013.00	56000.0	9.7983
12.200	300.34	2764.04	430.909	83.859	85.000	1.141	0.0000	1.3077	0.7992	0.2500	1011.00	56000.0	9.7981
12.300	304.96	2807.03	433.891	83.861	85.000	1.139	0.0000	1.3174	0.7983	0.2500	1009.00	56000.0	9.7980
12.400	309.62	2850.32	436.868	83.863	85.000	1.137	0.0000	1.3271	0.7973	0.2500	1007.00	56000.0	9.7979
12.500	314.30	2893.90	439.840	83.865	85.000	1.135	0.0000	1.3369	0.7963	0.2500	1005.00	56000.0	9.7977
12.600	319.02	2937.78	442.807	83.868	85.000	1.132	0.0000	1.3466	0.7953	0.2500	1003.00	56000.0	9.7976
12.700	323.76	2981.95	445.769	83.870	85.000	1.130	0.0000	1.3563	0.7944	0.2500	1001.00	56000.0	9.7975
12.800	328.54	3026.42	448.727	83.872	85.000	1.128	0.0000	1.3661	0.7934	0.2500	999.00	56000.0	9.7973
12.900	333.34	3071.19	451.680	83.874	85.000	1.126	0.0000	1.3758	0.7924	0.2500	997.00	56000.0	9.7972
13.000	338.18	3116.24	454.629	83.876	85.000	1.124	0.0000	1.3856	0.7914	0.2500	995.00	56000.0	9.7970
13.100	343.04	3161.59	457.574	83.878	85.000	1.122	0.0000	1.3953	0.7905	0.2500	993.00	56000.0	9.7969
13.200	347.94	3207.24	460.516	83.880	85.000	1.120	0.0000	1.4050	0.7888	0.2500	991.00	56000.0	9.7968
13.300	352.86	3253.17	463.455	83.882	85.000	1.118	0.0000	1.4148	0.7865	0.2500	989.00	56000.0	9.7966
13.400	357.82	3299.40	466.394	83.884	85.000	1.116	0.0000	1.4246	0.7843	0.2500	987.00	56000.0	9.7965
13.500	362.80	3345.92	469.333	83.886	85.000	1.114	0.0000	1.4344	0.7820	0.2500	985.00	56000.0	9.7963
13.600	367.82	3392.73	472.271	83.888	85.000	1.112	0.0000	1.4442	0.7797	0.2500	983.00	56000.0	9.7962
13.700	372.86	3439.84	475.208	83.890	85.000	1.110	0.0000	1.4540	0.7774	0.2500	981.00	56000.0	9.7960
13.800	377.93	3487.23	478.146	83.893	85.000	1.107	0.0000	1.4638	0.7751	0.2500	979.00	56000.0	9.7959
13.900	383.03	3534.92	481.084	83.895	85.000	1.105	0.0000	1.4737	0.7728	0.2500	977.00	56000.0	9.7958
14.000	388.16	3582.91	484.021	83.897	85.000	1.103	0.0000	1.4835	0.7705	0.2500	975.00	56000.0	9.7956
14.100	393.32	3631.18	486.960	83.899	85.000	1.101	0.0000	1.4934	0.7682	0.2500	973.00	56000.0	9.7955
14.200	398.51	3679.75	489.899	83.901	85.000	1.099	0.0000	1.5033	0.7659	0.2500	971.00	56000.0	9.7953
14.300	403.73	3728.60	492.839	83.903	85.000	1.097	0.0000	1.5133	0.7636	0.2500	969.00	56000.0	9.7952
14.400	408.98	3777.76	495.780	83.905	85.000	1.095	0.0000	1.5232	0.7612	0.2500	967.00	56000.0	9.7950
14.500	414.26	3827.20	498.722	83.907	85.000	1.093	0.0000	1.5332	0.7589	0.2500	965.00	56000.0	9.7949
14.600	419.57	3876.94	501.666	83.910	85.000	1.090	0.0000	1.5432	0.7566	0.2500	963.00	56000.0	9.7947
14.700	424.91	3926.97	504.612	83.912	85.000	1.088	0.0000	1.5532	0.7542	0.2500	961.00	56000.0	9.7945
14.800	430.27	3977.29	507.559	83.914	85.000	1.086	0.0000	1.5633	0.7519	0.2500	959.00	56000.0	9.7944
14.900	435.67	4027.91	510.508	83.916	85.000	1.084	0.0000	1.5733	0.7496	0.2500	957.00	56000.0	9.7942
15.000	441.10	4078.82	513.460	83.918	85.000	1.082	0.0000	1.5834	0.7472	0.2500	955.00	56000.0	9.7941
15.100	446.55	4130.02	516.415	83.920	85.000	1.080	0.0000	1.5935	0.7448	0.2500	953.00	56000.0	9.7939
15.200	452.03	4181.52	519.372	83.922	85.000	1.078	0.0000	1.6037	0.7425	0.2500	951.00	56000.0	9.7938
15.300	457.55	4233.31	522.332	83.924	85.000	1.076	0.0000	1.6139	0.7401	0.2500	949.00	56000.0	9.7936
15.400	463.09	4285.40	525.295	83.927	85.000	1.073	0.0000	1.6241	0.7377	0.2500	947.00	56000.0	9.7934
15.500	468.66	4337.78	528.261	83.929	85.000	1.071	0.0000	1.6343	0.7353	0.2500	945.00	56000.0	9.7933
15.600	474.27	4390.46	531.231	83.931	85.000	1.069	0.0000	1.6446	0.7329	0.2500	943.00	56000.0	9.7931
15.700	479.90	4443.43	534.205	83.933	85.000	1.067	0.0000	1.6549	0.7305	0.2500	941.00	56000.0	9.7930
15.800	485.56	4496.70	537.183	83.935	85.000	1.065	0.0000	1.6652	0.7281	0.2500	939.00	56000.0	9.7928
15.900	491.25	4550.27	540.166	83.937	85.000	1.063	0.0000	1.6756	0.7257	0.2500	937.00	56000.0	9.7926
16.000	496.97	4604.13	543.152	83.940	85.000	1.060	0.0000	1.6860	0.7233	0.2500	935.00	56000.0	9.7925
16.100	502.72	4658.29	546.144	83.942	85.000	1.058	0.0000	1.6965	0.7208	0.2500	933.00	56000.0	9.7923
16.200	508.50	4712.75	549.140	83.944	85.000	1.056	0.0000	1.7069	0.7184	0.2500	931.00	56000.0	9.7921
16.300	514.30	4767.51	552.142	83.946	85.000	1.054	0.0000	1.7174	0.7159	0.2500	929.00	56000.0	9.7920
16.400	520.14	4822.56	555.149	83.948	85.000	1.052	0.0000	1.7280	0.7135	0.2500	927.00	56000.0	9.7918
16.500	526.01	4877.92	558.161	83.950	85.000	1.050	0.0000	1.7386	0.7110	0.2500	925.00	56000.0	9.7916
16.600	531.91	4933.57	561.180	83.952	85.000	1.048	0.0000	1.7492	0.7085	0.2500	923.00	56000.0	9.7914
16.700	537.83	4989.53	564.204	83.955	85.000	1.045	0.0000	1.7599	0.7060	0.2500	921.00	56000.0	9.7913
16.800	543.79	5045.78	567.235	83.957	85.000	1.043	0.0000	1.7706	0.7035	0.2500	919.00	56000.0	9.7911
16.900	549.78	5102.34	570.273	83.959	85.000	1.041	0.0000	1.7814	0.7010	0.2500	917.00	56000.0	9.7909
17.000	555.79	5159.21	573.317	83.961	85.000	1.039	0.0000	1.7922	0.6985	0.2500	915.00	56000.0	9.7908
17.100	561.84	5216.37	576.369	83.963	85.000	1.037	0.0000	1.8030	0.6960	0.2500	913.00	56000.0	9.7906
17.200	567.92	5273.84	579.427	83.965	85.000	1.035	0.0000	1.8139	0.6934	0.2500	911.00	56000.0	9.7904
17.300	574.02	5331.61	582.494	83.968	85.000	1.032	0.0000	1.8249	0.6909	0.2500	909.00	56000.0	9.7902
17.400	580.16	5389.69	585.568	83.970	85.000	1.030	0.0000	1.8359	0.6883	0.2500	907.00	56000.0	9.7900
17.500	586.33	5448.08	588.650	83.972	85.000	1.028	0.0000	1.8469	0.6857	0.2500	905.00	56000.0	9.7899
17.600	592.52	5506.77	591.740	83.974	85.000	1.026	0.0000	1.8580	0.6831	0.2500	903.00	56000.0	9.7897
17.700	598.75	5565.77	594.839	83.976	85.000	1.024	0.0000	1.8692	0.6805	0.2500	901.00	56000.0	9.7895
17.800	605.01	5625.08	597.947	83.978	85.000	1.022	0.0000	1.8804	0.6779	0.2500	899.00	56000.0	9.7893
17.900	611.30	5684.70	601.064	83.980	85.000	1.020	0.0000	1.8916	0.6753	0.2500	897.00	56000.0	9.7891
18.000	617.61	5744.63	604.190	83.983	85.000	1.017	0.0000	1.9029	0.6726	0.2500	895.00	56000.0	9.7889
18.100	623.96	5804.88	607.326	83.985	85.000	1.015	0.0000	1.9143	0.6700	0.2500	893.00	56000.0	9.7888
18.200	630.34	5865.43	610.471	83.987	85.000	1.013	0.0000	1.9257	0.6673	0.2500	891.00	56000.0	9.7886
18.300	636.75	5926.30	613.627	83.989	85.000	1.011	0.0000	1.9372	0.6646	0.2500	889.00	56000.0	9.7884
18.400	643.19	5987.48	616.793	83.991	85.000	1.009	0.0000	1.9488	0.6620	0.2500	887.00	56000.0	9.7882
18.500	649.67	6048.98	619.970	83.993	85.000	1.007	0.0000	1.9604	0.6592	0.2500	885.00	56000.0	9.7880
18.600	656.17	6110.79	623.158	83.996	85.000	1.004	0.0000	1.9720	0.6565	0.2500	883.00	56000.0	9.7878
18.700	662.70	6172.93	626.356	83.998	85.000	1.002	0.0000	1.9838	0.6538	0.2500	881.00	56000.0	9.7876
18.800	669.27	6235.38	629.567	84.000	85.000	1.000	0.0000	1.9956	0.6510	0.2500	879.00	56000.0	9.7874
18.900	675.87	6298.15	632.788	84.002	85.000	0.998	0.0000	2.0074	0.6488	0.2500	877.00	56000.0	9.7872
19.000	682.49	6361.24	636.019	84.004	85.000	0.996	0.0000	2.0194	0.6468	0.2500	875.00	56000.0	9.7871
19.100	689.15	6424.66	639.260	84.006	85.000	0.994	0.0000	2.0313	0.6448	0.2500	873.00	56000.0	9.7869
19.200	695.84	6488.40	642.510	84.008	85.000	0.992	0.0000	2.0434	0.6428	0.2500	871.00	56000.0	9.7867
19.300	702.57	6552.46	645.771	84.010	85.000	0.990	0.0000	2.0555	0.6408	0.2500	869.00	56000.0	9.7865
19.400	709.32	6616.85	649.042	84.013	85.000	0.987	0.0000	2.0677	0.6387	0.2500	867.00	56000.0	9.7863
19.500	716.11	6681.56	652.323	84.015	85.000	0.985	0.0000	2.0799	0.6367	0.2500	865.00	56000.0	9.7861
19.600	722.93	6746.60	655.616	84.017	85.000	0.983	0.0000	2.0922	0.6346	0.2500	863.00	56000.0	9.7859
19.700	729.77	6811.97	658.919	84.019	85.000	0.981	0.0000	2.1046	0.6326	0.2500	861.00	56000.0	9.7857
19.800	736.66	6877.67	662.234	84.021	85.000	0.979	0.0000	2.1170	0.6305	0.2500	859.00	56000.0	9.7855
19.900	743.57	6943.69	665.561	84.023	85.000	0.977	0.0000	2.1295	0.6284	0.2500	857.00	56000.0	9.7853
